Voltage, ChA, Run #2
Time ( s )	Voltage ( V )
0.0000	-0.006
0.1000	-0.006
0.2000	-0.005
0.3000	-0.004
0.4000	-0.005
0.5000	-0.005
0.6000	-0.003
0.7000	-0.003
0.8000	-0.004
0.9000	-0.004
1.0000	-0.002
1.1000	-0.002
1.2000	-0.002
1.3000	-1.223
1.4000	-1.222
1.5000	-1.220
1.6000	-1.218
1.7000	-1.218
1.8000	-1.215
1.9000	-1.213
2.0000	-1.212
2.1000	-1.212
2.2000	-1.210
2.3000	-1.209
2.4000	-1.205
2.5000	-1.204
2.6000	-1.203
2.7000	-1.201
2.8000	-1.201
2.9000	-1.199
3.0000	-1.196
3.1000	-1.195
3.2000	-1.194
3.3000	-1.193
3.4000	-1.191
3.5000	-1.190
3.6000	-1.188
3.7000	-1.185
3.8000	-1.184
3.9000	-1.184
4.0000	-1.184
4.1000	-1.180
4.2000	-1.179
4.3000	-1.179
4.4000	-1.176
4.5000	-1.174
4.6000	-1.173
4.7000	-1.171
4.8000	-1.172
4.9000	-1.169
5.0000	-1.168
5.1000	-1.165
5.2000	-1.165
5.3000	-1.163
5.4000	-1.160
5.5000	-1.159
5.6000	-1.158
5.7000	-1.158
5.8000	-1.156
5.9000	-1.154
6.0000	-1.152
6.1000	-1.151
6.2000	-1.149
6.3000	-1.149
6.4000	-1.146
6.5000	-1.146
6.6000	-1.144
6.7000	-1.143
6.8000	-1.143
6.9000	-1.141
7.0000	-1.140
7.1000	-1.138
7.2000	-1.135
7.3000	-1.134
7.4000	-1.133
7.5000	-1.131
7.6000	-1.130
7.7000	-1.128
7.8000	-1.127
7.9000	-1.126
8.0000	-1.123
8.1000	-1.121
8.2000	-1.121
8.3000	-1.120
8.4000	-1.120
8.5000	-1.119
8.6000	-1.116
8.7000	-1.116
8.8000	-1.114
8.9000	-1.113
9.0000	-1.111
9.1000	-1.110
9.2000	-1.109
9.3000	-1.108
9.4000	-1.107
9.5000	-1.105
9.6000	-1.102
9.7000	-1.102
9.8000	-1.100
9.9000	-1.099
10.0000	-1.097
10.1000	-1.096
10.2000	-1.094
10.3000	-1.094
10.4000	-1.092
10.5000	-1.091
10.6000	-1.090
10.7000	-1.087
10.8000	-1.086
10.9000	-1.085
11.0000	-1.083
11.1000	-1.083
11.2000	-1.082
11.3000	-1.080
11.4000	-1.079
11.5000	-1.078
11.6000	-1.076
11.7000	-1.075
11.8000	-1.073
11.9000	-1.072
12.0000	-1.071
12.1000	-1.068
12.2000	-1.067
12.3000	-1.066
12.4000	-1.065
12.5000	-1.062
12.6000	-1.061
12.7000	-1.060
12.8000	-1.058
12.9000	-1.057
13.0000	-1.056
13.1000	-1.055
13.2000	-1.054
13.3000	-1.052
13.4000	-1.052
13.5000	-1.049
13.6000	-1.047
13.7000	-1.046
13.8000	-1.047
13.9000	-1.046
14.0000	-1.043
14.1000	-1.041
14.2000	-1.041
14.3000	-1.038
14.4000	-1.037
14.5000	-1.035
14.6000	-1.035
14.7000	-1.033
14.8000	-1.032
14.9000	-1.032
15.0000	-1.030
15.1000	-1.029
15.2000	-1.028
15.3000	-1.027
15.4000	-1.024
15.5000	-1.024
15.6000	-1.023
15.7000	-1.023
15.8000	-1.022
15.9000	-1.019
16.0000	-1.018
16.1000	-1.017
16.2000	-1.016
16.3000	-1.013
16.4000	-1.013
16.5000	-1.011
16.6000	-1.008
16.7000	-1.008
16.8000	-1.008
16.9000	-1.007
17.0000	-1.005
17.1000	-1.005
17.2000	-1.003
17.3000	-1.000
17.4000	-0.999
17.5000	-0.999
17.6000	-0.998
17.7000	-0.997
17.8000	-0.997
17.9000	-0.995
18.0000	-0.994
18.1000	-0.994
18.2000	-0.992
18.3000	-0.991
18.4000	-0.991
18.5000	-0.989
18.6000	-0.988
18.7000	-0.985
18.8000	-0.984
18.9000	-0.983
19.0000	-0.981
19.1000	-0.981
19.2000	-0.979
19.3000	-0.977
19.4000	-0.977
19.5000	-0.976
19.6000	-0.975
19.7000	-0.974
19.8000	-0.972
19.9000	-0.969
20.0000	-0.969
20.1000	-0.969
20.2000	-0.968
20.3000	-0.966
20.4000	-0.965
20.5000	-0.964
20.6000	-0.964
20.7000	-0.962
20.8000	-0.959
20.9000	-0.958
21.0000	-0.958
21.1000	-0.956
21.2000	-0.955
21.3000	-0.954
21.4000	-0.955
21.5000	-0.953
21.6000	-0.950
21.7000	-0.950
21.8000	-0.949
21.9000	-0.949
22.0000	-0.947
22.1000	-0.945
22.2000	-0.945
22.3000	-0.944
22.4000	-0.942
22.5000	-0.941
22.6000	-0.939
22.7000	-0.938
22.8000	-0.938
22.9000	-0.938
23.0000	-0.935
23.1000	-0.934
23.2000	-0.933
23.3000	-0.931
23.4000	-0.930
23.5000	-0.930
23.6000	-0.928
23.7000	-0.928
23.8000	-0.925
23.9000	-0.924
24.0000	-0.924
24.1000	-0.923
24.2000	-0.922
24.3000	-0.920
24.4000	-0.920
24.5000	-0.918
24.6000	-0.917
24.7000	-0.916
24.8000	-0.916
24.9000	-0.916
25.0000	-0.913
25.1000	-0.913
25.2000	-0.911
25.3000	-0.911
25.4000	-0.909
25.5000	-0.908
25.6000	-0.907
25.7000	-0.906
25.8000	-0.905
25.9000	-0.903
26.0000	-0.901
26.1000	-0.902
26.2000	-0.902
26.3000	-0.900
26.4000	-0.898
26.5000	-0.897
26.6000	-0.897
26.7000	-0.896
26.8000	-0.894
26.9000	-0.893
27.0000	-0.891
27.1000	-0.891
27.2000	-0.889
27.3000	-0.887
27.4000	-0.888
27.5000	-0.886
27.6000	-0.884
27.7000	-0.883
27.8000	-0.882
27.9000	-0.881
28.0000	-0.882
28.1000	-0.879
28.2000	-0.878
28.3000	-0.878
28.4000	-0.878
28.5000	-0.876
28.6000	-0.875
28.7000	-0.873
28.8000	-0.874
28.9000	-0.872
29.0000	-0.871
29.1000	-0.869
29.2000	-0.868
29.3000	-0.869
29.4000	-0.867
29.5000	-0.865
29.6000	-0.864
29.7000	-0.863
29.8000	-0.862
29.9000	-0.861
30.0000	-0.859
30.1000	-0.858
30.2000	-0.858
30.3000	-0.857
30.4000	-0.857
30.5000	-0.855
30.6000	-0.854
30.7000	-0.853
30.8000	-0.853
30.9000	-0.852
31.0000	-0.851
31.1000	-0.850
31.2000	-0.848
31.3000	-0.847
31.4000	-0.846
31.5000	-0.845
31.6000	-0.844
31.7000	-0.842
31.8000	-0.843
31.9000	-0.840
32.0000	-0.840
32.1000	-0.839
32.2000	-0.838
32.3000	-0.837
32.4000	-0.836
32.5000	-0.833
32.6000	-0.833
32.7000	-0.833
32.8000	-0.832
32.9000	-0.831
33.0000	-0.830
33.1000	-0.829
33.2000	-0.829
33.3000	-0.828
33.4000	-0.827
33.5000	-0.827
33.6000	-0.825
33.7000	-0.823
33.8000	-0.822
33.9000	-0.820
34.0000	-0.820
34.1000	-0.818
34.2000	-0.818
34.3000	-0.819
34.4000	-0.817
34.5000	-0.816
34.6000	-0.814
34.7000	-0.814
34.8000	-0.812
34.9000	-0.811
35.0000	-0.809
35.1000	-0.808
35.2000	-0.808
35.3000	-0.808
35.4000	-0.808
35.5000	-0.806
35.6000	-0.806
35.7000	-0.803
35.8000	-0.804
35.9000	-0.803
36.0000	-0.803
36.1000	-0.801
36.2000	-0.799
36.3000	-0.800
36.4000	-0.797
36.5000	-0.797
36.6000	-0.796
36.7000	-0.794
36.8000	-0.795
36.9000	-0.793
37.0000	-0.792
37.1000	-0.792
37.2000	-0.792
37.3000	-0.789
37.4000	-0.789
37.5000	-0.786
37.6000	-0.785
37.7000	-0.783
37.8000	-0.782
37.9000	-0.781
38.0000	-0.779
38.1000	-0.779
38.2000	-0.778
38.3000	-0.778
38.4000	-0.777
38.5000	-0.774
38.6000	-0.775
38.7000	-0.775
38.8000	-0.774
38.9000	-0.773
39.0000	-0.771
39.1000	-0.771
39.2000	-0.770
39.3000	-0.768
39.4000	-0.769
39.5000	-0.767
39.6000	-0.767
39.7000	-0.766
39.8000	-0.765
39.9000	-0.765
40.0000	-0.764
40.1000	-0.763
40.2000	-0.761
40.3000	-0.760
40.4000	-0.760
40.5000	-0.759
40.6000	-0.759
40.7000	-0.757
40.8000	-0.758
40.9000	-0.757
41.0000	-0.757
41.1000	-0.756
41.2000	-0.755
41.3000	-0.755
41.4000	-0.751
41.5000	-0.753
41.6000	-0.751
41.7000	-0.751
41.8000	-0.749
41.9000	-0.749
42.0000	-0.746
42.1000	-0.746
42.2000	-0.745
42.3000	-0.744
42.4000	-0.743
42.5000	-0.742
42.6000	-0.740
42.7000	-0.740
42.8000	-0.739
42.9000	-0.739
43.0000	-0.735
43.1000	-0.735
43.2000	-0.734
43.3000	-0.733
43.4000	-0.732
43.5000	-0.731
43.6000	-0.730
43.7000	-0.730
43.8000	-0.728
43.9000	-0.728
44.0000	-0.727
44.1000	-0.726
44.2000	-0.726
44.3000	-0.725
44.4000	-0.725
44.5000	-0.723
44.6000	-0.721
44.7000	-0.721
44.8000	-0.720
44.9000	-0.719
45.0000	-0.717
45.1000	-0.717
45.2000	-0.715
45.3000	-0.716
45.4000	-0.715
45.5000	-0.715
45.6000	-0.715
45.7000	-0.715
45.8000	-0.715
45.9000	-0.713
46.0000	-0.711
46.1000	-0.712
46.2000	-0.711
46.3000	-0.710
46.4000	-0.709
46.5000	-0.709
46.6000	-0.707
46.7000	-0.706
46.8000	-0.705
46.9000	-0.703
47.0000	-0.703
47.1000	-0.703
47.2000	-0.701
47.3000	-0.700
47.4000	-0.700
47.5000	-0.699
47.6000	-0.698
47.7000	-0.696
47.8000	-0.696
47.9000	-0.695
48.0000	-0.696
48.1000	-0.695
48.2000	-0.693
48.3000	-0.693
48.4000	-0.692
48.5000	-0.690
48.6000	-0.690
48.7000	-0.687
48.8000	-0.686
48.9000	-0.685
49.0000	-0.685
49.1000	-0.684
49.2000	-0.685
49.3000	-0.682
49.4000	-0.681
49.5000	-0.681
49.6000	-0.681
49.7000	-0.679
49.8000	-0.680
49.9000	-0.678
50.0000	-0.678
50.1000	-0.677
50.2000	-0.677
50.3000	-0.676
50.4000	-0.675
50.5000	-0.674
50.6000	-0.674
50.7000	-0.673
50.8000	-0.673
50.9000	-0.670
51.0000	-0.670
51.1000	-0.668
51.2000	-0.669
51.3000	-0.667
51.4000	-0.666
51.5000	-0.666
51.6000	-0.665
51.7000	-0.663
51.8000	-0.662
51.9000	-0.663
52.0000	-0.663
52.1000	-0.662
52.2000	-0.660
52.3000	-0.660
52.4000	-0.660
52.5000	-0.658
52.6000	-0.659
52.7000	-0.657
52.8000	-0.657
52.9000	-0.655
53.0000	-0.656
53.1000	-0.654
53.2000	-0.654
53.3000	-0.652
53.4000	-0.652
53.5000	-0.649
53.6000	-0.650
53.7000	-0.650
53.8000	-0.648
53.9000	-0.647
54.0000	-0.647
54.1000	-0.646
54.2000	-0.646
54.3000	-0.644
54.4000	-0.644
54.5000	-0.644
54.6000	-0.643
54.7000	-0.641
54.8000	-0.641
54.9000	-0.640
55.0000	-0.641
55.1000	-0.639
55.2000	-0.638
55.3000	-0.638
55.4000	-0.637
55.5000	-0.635
55.6000	-0.634
55.7000	-0.635
55.8000	-0.634
55.9000	-0.633
56.0000	-0.631
56.1000	-0.630
56.2000	-0.629
56.3000	-0.629
56.4000	-0.627
56.5000	-0.627
56.6000	-0.626
56.7000	-0.626
56.8000	-0.623
56.9000	-0.624
57.0000	-0.624
57.1000	-0.623
57.2000	-0.623
57.3000	-0.622
57.4000	-0.620
57.5000	-0.619
57.6000	-0.618
57.7000	-0.617
57.8000	-0.618
57.9000	-0.618
58.0000	-0.617
58.1000	-0.616
58.2000	-0.615
58.3000	-0.614
58.4000	-0.613
58.5000	-0.613
58.6000	-0.612
58.7000	-0.611
58.8000	-0.612
58.9000	-0.611
59.0000	-0.609
59.1000	-0.609
59.2000	-0.608
59.3000	-0.607
59.4000	-0.606
59.5000	-0.605
59.6000	-0.604
59.7000	-0.602
59.8000	-0.602
59.9000	-0.602
60.0000	-0.601
60.1000	-0.601
60.2000	-0.601
60.3000	-0.601
60.4000	-0.599
60.5000	-0.599
60.6000	-0.598
60.7000	-0.598
60.8000	-0.598
60.9000	-0.598
61.0000	-0.596
61.1000	-0.595
61.2000	-0.596
61.3000	-0.594
61.4000	-0.593
61.5000	-0.593
61.6000	-0.592
61.7000	-0.590
61.8000	-0.589
61.9000	-0.588
62.0000	-0.588
62.1000	-0.587
62.2000	-0.587
62.3000	-0.588
62.4000	-0.585
62.5000	-0.580
62.6000	-0.585
62.7000	-0.584
62.8000	-0.584
62.9000	-0.582
63.0000	-0.582
63.1000	-0.581
63.2000	-0.580
63.3000	-0.580
63.4000	-0.579
63.5000	-0.579
63.6000	-0.577
63.7000	-0.576
63.8000	-0.575
63.9000	-0.576
64.0000	-0.574
64.1000	-0.574
64.2000	-0.572
64.3000	-0.570
64.4000	-0.571
64.5000	-0.571
64.6000	-0.570
64.7000	-0.570
64.8000	-0.569
64.9000	-0.569
65.0000	-0.568
65.1000	-0.568
65.2000	-0.568
65.3000	-0.567
65.4000	-0.566
65.5000	-0.565
65.6000	-0.565
65.7000	-0.565
65.8000	-0.563
65.9000	-0.562
66.0000	-0.562
66.1000	-0.561
66.2000	-0.562
66.3000	-0.559
66.4000	-0.559
66.5000	-0.560
66.6000	-0.559
66.7000	-0.558
66.8000	-0.557
66.9000	-0.557
67.0000	-0.555
67.1000	-0.555
67.2000	-0.554
67.3000	-0.553
67.4000	-0.552
67.5000	-0.552
67.6000	-0.551
67.7000	-0.549
67.8000	-0.550
67.9000	-0.548
68.0000	-0.548
68.1000	-0.547
68.2000	-0.546
68.3000	-0.546
68.4000	-0.544
68.5000	-0.544
68.6000	-0.543
68.7000	-0.544
68.8000	-0.543
68.9000	-0.542
69.0000	-0.542
69.1000	-0.542
69.2000	-0.540
69.3000	-0.540
69.4000	-0.540
69.5000	-0.538
69.6000	-0.537
69.7000	-0.538
69.8000	-0.538
69.9000	-0.535
70.0000	-0.535
70.1000	-0.535
70.2000	-0.533
70.3000	-0.533
70.4000	-0.533
70.5000	-0.531
70.6000	-0.531
70.7000	-0.531
70.8000	-0.529
70.9000	-0.529
71.0000	-0.529
71.1000	-0.530
71.2000	-0.528
71.3000	-0.527
71.4000	-0.528
71.5000	-0.526
71.6000	-0.526
71.7000	-0.526
71.8000	-0.524
71.9000	-0.524
72.0000	-0.522
72.1000	-0.521
72.2000	-0.522
72.3000	-0.520
72.4000	-0.520
72.5000	-0.521
72.6000	-0.519
72.7000	-0.519
72.8000	-0.519
72.9000	-0.518
73.0000	-0.518
73.1000	-0.517
73.2000	-0.516
73.3000	-0.515
73.4000	-0.515
73.5000	-0.513
73.6000	-0.515
73.7000	-0.513
73.8000	-0.512
73.9000	-0.510
74.0000	-0.511
74.1000	-0.511
74.2000	-0.508
74.3000	-0.508
74.4000	-0.507
74.5000	-0.506
74.6000	-0.505
74.7000	-0.507
74.8000	-0.505
74.9000	-0.504
75.0000	-0.504
75.1000	-0.504
75.2000	-0.504
75.3000	-0.503
75.4000	-0.502
75.5000	-0.501
75.6000	-0.501
75.7000	-0.502
75.8000	-0.501
75.9000	-0.500
76.0000	-0.500
76.1000	-0.499
76.2000	-0.497
76.3000	-0.496
76.4000	-0.498
76.5000	-0.497
76.6000	-0.497
76.7000	-0.496
76.8000	-0.496
76.9000	-0.494
77.0000	-0.494
77.1000	-0.493
77.2000	-0.492
77.3000	-0.492
77.4000	-0.492
77.5000	-0.491
77.6000	-0.491
77.7000	-0.490
77.8000	-0.490
77.9000	-0.490
78.0000	-0.488
78.1000	-0.486
78.2000	-0.487
78.3000	-0.486
78.4000	-0.485
78.5000	-0.485
78.6000	-0.485
78.7000	-0.485
78.8000	-0.484
78.9000	-0.484
79.0000	-0.483
79.1000	-0.482
79.2000	-0.482
79.3000	-0.481
79.4000	-0.479
79.5000	-0.479
79.6000	-0.480
79.7000	-0.479
79.8000	-0.477
79.9000	-0.479
80.0000	-0.477
80.1000	-0.476
80.2000	-0.475
80.3000	-0.475
80.4000	-0.474
80.5000	-0.472
80.6000	-0.472
80.7000	-0.471
80.8000	-0.471
80.9000	-0.472
81.0000	-0.471
81.1000	-0.471
81.2000	-0.470
81.3000	-0.468
81.4000	-0.468
81.5000	-0.468
81.6000	-0.466
81.7000	-0.469
81.8000	-0.466
81.9000	-0.466
82.0000	-0.466
82.1000	-0.464
82.2000	-0.464
82.3000	-0.464
82.4000	-0.464
82.5000	-0.462
82.6000	-0.462
82.7000	-0.460
82.8000	-0.461
82.9000	-0.461
83.0000	-0.460
83.1000	-0.460
83.2000	-0.457
83.3000	-0.458
83.4000	-0.459
83.5000	-0.458
83.6000	-0.458
83.7000	-0.457
83.8000	-0.455
83.9000	-0.455
84.0000	-0.455
84.1000	-0.454
84.2000	-0.452
84.3000	-0.452
84.4000	-0.453
84.5000	-0.450
84.6000	-0.449
84.7000	-0.450
84.8000	-0.449
84.9000	-0.448
85.0000	-0.449
85.1000	-0.449
85.2000	-0.448
85.3000	-0.447
85.4000	-0.446
85.5000	-0.446
85.6000	-0.446
85.7000	-0.446
85.8000	-0.444
85.9000	-0.444
86.0000	-0.444
86.1000	-0.443
86.2000	-0.443
86.3000	-0.444
86.4000	-0.444
86.5000	-0.441
86.6000	-0.442
86.7000	-0.440
86.8000	-0.441
86.9000	-0.439
87.0000	-0.439
87.1000	-0.438
87.2000	-0.439
87.3000	-0.439
87.4000	-0.439
87.5000	-0.438
87.6000	-0.436
87.7000	-0.436
87.8000	-0.436
87.9000	-0.435
88.0000	-0.435
88.1000	-0.435
88.2000	-0.435
88.3000	-0.435
88.4000	-0.433
88.5000	-0.434
88.6000	-0.433
88.7000	-0.432
88.8000	-0.430
88.9000	-0.430
89.0000	-0.430
89.1000	-0.429
89.2000	-0.428
89.3000	-0.428
89.4000	-0.426
89.5000	-0.427
89.6000	-0.427
89.7000	-0.425
89.8000	-0.426
89.9000	-0.425
90.0000	-0.424
90.1000	-0.424
90.2000	-0.423
90.3000	-0.422
90.4000	-0.425
90.5000	-0.424
90.6000	-0.422
90.7000	-0.421
90.8000	-0.421
90.9000	-0.419
91.0000	-0.420
91.1000	-0.419
91.2000	-0.419
91.3000	-0.416
91.4000	-0.418
91.5000	-0.417
91.6000	-0.417
91.7000	-0.417
91.8000	-0.416
91.9000	-0.416
92.0000	-0.417
92.1000	-0.414
92.2000	-0.416
92.3000	-0.414
92.4000	-0.414
92.5000	-0.413
92.6000	-0.414
92.7000	-0.413
92.8000	-0.411
92.9000	-0.411
93.0000	-0.411
93.1000	-0.411
93.2000	-0.410
93.3000	-0.410
93.4000	-0.410
93.5000	-0.408
93.6000	-0.408
93.7000	-0.409
93.8000	-0.409
93.9000	-0.407
94.0000	-0.407
94.1000	-0.407
94.2000	-0.407
94.3000	-0.405
94.4000	-0.406
94.5000	-0.405
94.6000	-0.404
94.7000	-0.404
94.8000	-0.404
94.9000	-0.406
95.0000	-0.403
95.1000	-0.403
95.2000	-0.403
95.3000	-0.402
95.4000	-0.402
95.5000	-0.403
95.6000	-0.402
95.7000	-0.401
95.8000	-0.400
95.9000	-0.399
96.0000	-0.399
96.1000	-0.399
96.2000	-0.397
96.3000	-0.398
96.4000	-0.396
96.5000	-0.396
96.6000	-0.396
96.7000	-0.394
96.8000	-0.394
96.9000	-0.394
97.0000	-0.393
97.1000	-0.393
97.2000	-0.392
97.3000	-0.391
97.4000	-0.392
97.5000	-0.391
97.6000	-0.391
97.7000	-0.391
97.8000	-0.390
97.9000	-0.391
98.0000	-0.391
98.1000	-0.389
98.2000	-0.389
98.3000	-0.389
98.4000	-0.388
98.5000	-0.388
98.6000	-0.388
98.7000	-0.387
98.8000	-0.387
98.9000	-0.387
99.0000	-0.386
99.1000	-0.386
99.2000	-0.386
99.3000	-0.385
99.4000	-0.384
99.5000	-0.385
99.6000	-0.384
99.7000	-0.383
99.8000	-0.383
99.9000	-0.383
100.0000	-0.382
100.1000	-0.381
100.2000	-0.382
100.3000	-0.380
100.4000	-0.380
100.5000	-0.380
100.6000	-0.380
100.7000	-0.380
100.8000	-0.380
100.9000	-0.378
101.0000	-0.378
101.1000	-0.378
101.2000	-0.377
101.3000	-0.376
101.4000	-0.377
101.5000	-0.375
101.6000	-0.375
101.7000	-0.374
101.8000	-0.374
101.9000	-0.374
102.0000	-0.373
102.1000	-0.374
102.2000	-0.372
102.3000	-0.372
102.4000	-0.372
102.5000	-0.373
102.6000	-0.372
102.7000	-0.371
102.8000	-0.371
102.9000	-0.371
103.0000	-0.370
103.1000	-0.369
103.2000	-0.369
103.3000	-0.369
103.4000	-0.369
103.5000	-0.369
103.6000	-0.368
103.7000	-0.369
103.8000	-0.369
103.9000	-0.368
104.0000	-0.367
104.1000	-0.367
104.2000	-0.366
104.3000	-0.366
104.4000	-0.365
104.5000	-0.364
104.6000	-0.364
104.7000	-0.363
104.8000	-0.363
104.9000	-0.363
105.0000	-0.362
105.1000	-0.361
105.2000	-0.360
105.3000	-0.361
105.4000	-0.361
105.5000	-0.361
105.6000	-0.360
105.7000	-0.360
105.8000	-0.359
105.9000	-0.360
106.0000	-0.359
106.1000	-0.358
106.2000	-0.358
106.3000	-0.358
106.4000	-0.357
106.5000	-0.354
106.6000	-0.355
106.7000	-0.354
106.8000	-0.354
106.9000	-0.354
107.0000	-0.355
107.1000	-0.354
107.2000	-0.355
107.3000	-0.355
107.4000	-0.354
107.5000	-0.353
107.6000	-0.353
107.7000	-0.353
107.8000	-0.353
107.9000	-0.353
108.0000	-0.353
108.1000	-0.351
108.2000	-0.352
108.3000	-0.351
108.4000	-0.350
108.5000	-0.350
108.6000	-0.350
108.7000	-0.351
108.8000	-0.350
108.9000	-0.349
109.0000	-0.349
109.1000	-0.349
109.2000	-0.350
109.3000	-0.350
109.4000	-0.349
109.5000	-0.349
109.6000	-0.347
109.7000	-0.347
109.8000	-0.348
109.9000	-0.347
110.0000	-0.345
110.1000	-0.345
110.2000	-0.344
110.3000	-0.344
110.4000	-0.344
110.5000	-0.345
110.6000	-0.344
110.7000	-0.344
110.8000	-0.344
110.9000	-0.344
111.0000	-0.344
111.1000	-0.342
111.2000	-0.341
111.3000	-0.340
111.4000	-0.339
111.5000	-0.339
111.6000	-0.339
111.7000	-0.340
111.8000	-0.340
111.9000	-0.339
112.0000	-0.339
112.1000	-0.339
112.2000	-0.338
112.3000	-0.339
112.4000	-0.337
112.5000	-0.337
112.6000	-0.337
112.7000	-0.335
112.8000	-0.336
112.9000	-0.336
113.0000	-0.335
113.1000	-0.334
113.2000	-0.334
113.3000	-0.334
113.4000	-0.334
113.5000	-0.334
113.6000	-0.333
113.7000	-0.332
113.8000	-0.333
113.9000	-0.330
114.0000	-0.331
114.1000	-0.330
114.2000	-0.330
114.3000	-0.330
114.4000	-0.330
114.5000	-0.330
114.6000	-0.330
114.7000	-0.328
114.8000	-0.328
114.9000	-0.328
115.0000	-0.328
115.1000	-0.327
115.2000	-0.325
115.3000	-0.325
115.4000	-0.325
115.5000	-0.325
115.6000	-0.325
115.7000	-0.325
115.8000	-0.325
115.9000	-0.324
116.0000	-0.323
116.1000	-0.324
116.2000	-0.323
116.3000	-0.324
116.4000	-0.322
116.5000	-0.322
116.6000	-0.321
116.7000	-0.322
116.8000	-0.321
116.9000	-0.322
117.0000	-0.322
117.1000	-0.320
117.2000	-0.319
117.3000	-0.319
117.4000	-0.317
117.5000	-0.318
117.6000	-0.316
117.7000	-0.317
117.8000	-0.317
117.9000	-0.318
118.0000	-0.318
118.1000	-0.318
118.2000	-0.317
118.3000	-0.315
118.4000	-0.316
118.5000	-0.315
118.6000	-0.316
118.7000	-0.315
118.8000	-0.314
118.9000	-0.314
119.0000	-0.315
119.1000	-0.313
119.2000	-0.312
119.3000	-0.312
119.4000	-0.311
119.5000	-0.311
119.6000	-0.309
119.7000	-0.309
119.8000	-0.309
119.9000	-0.308
120.0000	-0.307
120.1000	-0.308
120.2000	-0.308
120.3000	-0.306
120.4000	-0.306
120.5000	-0.306
120.6000	-0.305
120.7000	-0.305
120.8000	-0.305
120.9000	-0.307
121.0000	-0.306
121.1000	-0.308
121.2000	-0.308
121.3000	-0.306
121.4000	-0.306
121.5000	-0.306
121.6000	-0.306
121.7000	-0.305
121.8000	-0.305
121.9000	-0.305
122.0000	-0.304
122.1000	-0.303
122.2000	-0.303
122.3000	-0.304
122.4000	-0.303
122.5000	-0.302
122.6000	-0.302
122.7000	-0.300
122.8000	-0.300
122.9000	-0.300
123.0000	-0.300
123.1000	-0.298
123.2000	-0.300
123.3000	-0.300
123.4000	-0.298
123.5000	-0.298
123.6000	-0.297
123.7000	-0.297
123.8000	-0.297
123.9000	-0.296
124.0000	-0.295
124.1000	-0.295
124.2000	-0.295
124.3000	-0.295
124.4000	-0.295
124.5000	-0.295
124.6000	-0.295
124.7000	-0.294
124.8000	-0.294
124.9000	-0.294
125.0000	-0.292
125.1000	-0.292
125.2000	-0.293
125.3000	-0.291
125.4000	-0.292
125.5000	-0.291
125.6000	-0.291
125.7000	-0.290
125.8000	-0.290
125.9000	-0.289
126.0000	-0.290
126.1000	-0.290
126.2000	-0.289
126.3000	-0.289
126.4000	-0.287
126.5000	-0.286
126.6000	-0.287
126.7000	-0.286
126.8000	-0.287
126.9000	-0.286
127.0000	-0.286
127.1000	-0.286
127.2000	-0.286
127.3000	-0.286
127.4000	-0.286
127.5000	-0.284
127.6000	-0.286
127.7000	-0.284
127.8000	-0.284
127.9000	-0.283
128.0000	-0.283
128.1000	-0.282
128.2000	-0.283
128.3000	-0.283
128.4000	-0.282
128.5000	-0.281
128.6000	-0.280
128.7000	-0.280
128.8000	-0.280
128.9000	-0.278
129.0000	-0.279
129.1000	-0.280
129.2000	-0.280
129.3000	-0.278
129.4000	-0.279
129.5000	-0.278
129.6000	-0.278
129.7000	-0.278
129.8000	-0.276
129.9000	-0.276
130.0000	-0.276
130.1000	-0.275
130.2000	-0.275
130.3000	-0.275
130.4000	-0.274
130.5000	-0.273
130.6000	-0.273
130.7000	-0.273
130.8000	-0.273
130.9000	-0.274
131.0000	-0.273
131.1000	-0.273
131.2000	-0.272
131.3000	-0.273
131.4000	-0.272
131.5000	-0.272
131.6000	-0.272
131.7000	-0.272
131.8000	-0.270
131.9000	-0.271
132.0000	-0.270
132.1000	-0.269
132.2000	-0.268
132.3000	-0.267
132.4000	-0.267
132.5000	-0.267
132.6000	-0.267
132.7000	-0.267
132.8000	-0.266
132.9000	-0.266
133.0000	-0.266
133.1000	-0.265
133.2000	-0.264
133.3000	-0.264
133.4000	-0.264
133.5000	-0.262
133.6000	-0.263
133.7000	-0.261
133.8000	-0.261
133.9000	-0.262
134.0000	-0.261
134.1000	-0.262
134.2000	-0.261
134.3000	-0.261
134.4000	-0.261
134.5000	-0.261
134.6000	-0.260
134.7000	-0.260
134.8000	-0.260
134.9000	-0.259
135.0000	-0.259
135.1000	-0.259
135.2000	-0.258
135.3000	-0.259
135.4000	-0.258
135.5000	-0.256
135.6000	-0.257
135.7000	-0.257
135.8000	-0.257
135.9000	-0.255
136.0000	-0.255
136.1000	-0.255
136.2000	-0.256
136.3000	-0.255
136.4000	-0.255
136.5000	-0.253
136.6000	-0.253
136.7000	-0.253
136.8000	-0.251
136.9000	-0.250
137.0000	-0.251
137.1000	-0.253
137.2000	-0.251
137.3000	-0.250
137.4000	-0.250
137.5000	-0.250
137.6000	-0.250
137.7000	-0.250
137.8000	-0.250
137.9000	-0.249
138.0000	-0.250
138.1000	-0.250
138.2000	-0.248
138.3000	-0.248
138.4000	-0.247
138.5000	-0.247
138.6000	-0.247
138.7000	-0.247
138.8000	-0.248
138.9000	-0.247
139.0000	-0.245
139.1000	-0.247
139.2000	-0.247
139.3000	-0.245
139.4000	-0.244
139.5000	-0.245
139.6000	-0.245
139.7000	-0.245
139.8000	-0.245
139.9000	-0.243
140.0000	-0.242
140.1000	-0.243
140.2000	-0.243
140.3000	-0.242
140.4000	-0.242
140.5000	-0.241
140.6000	-0.240
140.7000	-0.240
140.8000	-0.241
140.9000	-0.240
141.0000	-0.240
141.1000	-0.239
141.2000	-0.240
141.3000	-0.237
141.4000	-0.239
141.5000	-0.238
141.6000	-0.237
141.7000	-0.237
141.8000	-0.236
141.9000	-0.236
142.0000	-0.236
142.1000	-0.237
142.2000	-0.236
142.3000	-0.236
142.4000	-0.234
142.5000	-0.236
142.6000	-0.234
142.7000	-0.234
142.8000	-0.234
142.9000	-0.233
143.0000	-0.234
143.1000	-0.234
143.2000	-0.234
143.3000	-0.233
143.4000	-0.232
143.5000	-0.231
143.6000	-0.231
143.7000	-0.232
143.8000	-0.232
143.9000	-0.233
144.0000	-0.232
144.1000	-0.231
144.2000	-0.231
144.3000	-0.230
144.4000	-0.229
144.5000	-0.229
144.6000	-0.229
144.7000	-0.228
144.8000	-0.228
144.9000	-0.228
145.0000	-0.228
145.1000	-0.228
145.2000	-0.228
145.3000	-0.228
145.4000	-0.227
145.5000	-0.226
145.6000	-0.226
145.7000	-0.226
145.8000	-0.226
145.9000	-0.226
146.0000	-0.225
146.1000	-0.226
146.2000	-0.225
146.3000	-0.225
146.4000	-0.224
146.5000	-0.223
146.6000	-0.223
146.7000	-0.223
146.8000	-0.222
146.9000	-0.222
147.0000	-0.223
147.1000	-0.223
147.2000	-0.224
147.3000	-0.223
147.4000	-0.222
147.5000	-0.222
147.6000	-0.222
147.7000	-0.221
147.8000	-0.222
147.9000	-0.222
148.0000	-0.221
148.1000	-0.220
148.2000	-0.220
148.3000	-0.219
148.4000	-0.219
148.5000	-0.219
148.6000	-0.218
148.7000	-0.218
148.8000	-0.217
148.9000	-0.217
149.0000	-0.217
149.1000	-0.217
149.2000	-0.217
149.3000	-0.217
149.4000	-0.216
149.5000	-0.216
149.6000	-0.215
149.7000	-0.215
149.8000	-0.216
149.9000	-0.215
150.0000	-0.214
150.1000	-0.214
150.2000	-0.214
150.3000	-0.215
150.4000	-0.214
150.5000	-0.213
150.6000	-0.214
150.7000	-0.213
150.8000	-0.213
150.9000	-0.212
151.0000	-0.212
151.1000	-0.213
151.2000	-0.213
151.3000	-0.212
151.4000	-0.212
151.5000	-0.212
151.6000	-0.212
151.7000	-0.211
151.8000	-0.212
151.9000	-0.211
152.0000	-0.211
152.1000	-0.211
152.2000	-0.211
152.3000	-0.210
152.4000	-0.209
152.5000	-0.209
152.6000	-0.209
152.7000	-0.209
152.8000	-0.210
152.9000	-0.208
153.0000	-0.209
153.1000	-0.208
153.2000	-0.208
153.3000	-0.208
153.4000	-0.208
153.5000	-0.207
153.6000	-0.207
153.7000	-0.208
153.8000	-0.208
153.9000	-0.206
154.0000	-0.207
154.1000	-0.206
154.2000	-0.206
154.3000	-0.206
154.4000	-0.206
154.5000	-0.206
154.6000	-0.204
154.7000	-0.204
154.8000	-0.204
154.9000	-0.204
155.0000	-0.204
155.1000	-0.203
155.2000	-0.203
155.3000	-0.203
155.4000	-0.203
155.5000	-0.204
155.6000	-0.203
155.7000	-0.203
155.8000	-0.202
155.9000	-0.202
156.0000	-0.202
156.1000	-0.202
156.2000	-0.200
156.3000	-0.200
156.4000	-0.200
156.5000	-0.198
156.6000	-0.200
156.7000	-0.198
156.8000	-0.198
156.9000	-0.199
157.0000	-0.198
157.1000	-0.197
157.2000	-0.197
157.3000	-0.198
157.4000	-0.198
157.5000	-0.198
157.6000	-0.197
157.7000	-0.197
157.8000	-0.196
157.9000	-0.197
158.0000	-0.197
158.1000	-0.197
158.2000	-0.197
158.3000	-0.197
158.4000	-0.195
158.5000	-0.197
158.6000	-0.196
158.7000	-0.195
158.8000	-0.194
158.9000	-0.195
159.0000	-0.196
159.1000	-0.195
159.2000	-0.194
159.3000	-0.194
159.4000	-0.194
159.5000	-0.195
159.6000	-0.193
159.7000	-0.193
159.8000	-0.193
159.9000	-0.193
160.0000	-0.193
160.1000	-0.193
160.2000	-0.192
160.3000	-0.192
160.4000	-0.192
160.5000	-0.193
160.6000	-0.192
160.7000	-0.191
160.8000	-0.191
160.9000	-0.190
161.0000	-0.192
161.1000	-0.190
161.2000	-0.189
161.3000	-0.190
161.4000	-0.190
161.5000	-0.189
161.6000	-0.189
161.7000	-0.189
161.8000	-0.189
161.9000	-0.189
162.0000	-0.189
162.1000	-0.188
162.2000	-0.188
162.3000	-0.188
162.4000	-0.189
162.5000	-0.188
162.6000	-0.187
162.7000	-0.187
162.8000	-0.187
162.9000	-0.187
163.0000	-0.186
163.1000	-0.187
163.2000	-0.186
163.3000	-0.186
163.4000	-0.185
163.5000	-0.186
163.6000	-0.185
163.7000	-0.186
163.8000	-0.186
163.9000	-0.186
164.0000	-0.185
164.1000	-0.184
164.2000	-0.184
164.3000	-0.184
164.4000	-0.183
164.5000	-0.183
164.6000	-0.183
164.7000	-0.184
164.8000	-0.183
164.9000	-0.183
165.0000	-0.183
165.1000	-0.183
165.2000	-0.184
165.3000	-0.183
165.4000	-0.183
165.5000	-0.181
165.6000	-0.181
165.7000	-0.183
165.8000	-0.181
165.9000	-0.181
166.0000	-0.181
166.1000	-0.181
166.2000	-0.181
166.3000	-0.180
166.4000	-0.180
166.5000	-0.179
166.6000	-0.180
166.7000	-0.180
166.8000	-0.179
166.9000	-0.179
167.0000	-0.179
167.1000	-0.180
167.2000	-0.179
167.3000	-0.179
167.4000	-0.179
167.5000	-0.178
167.6000	-0.178
167.7000	-0.178
167.8000	-0.178
167.9000	-0.178
168.0000	-0.178
168.1000	-0.179
168.2000	-0.178
168.3000	-0.178
168.4000	-0.177
168.5000	-0.176
168.6000	-0.176
168.7000	-0.176
168.8000	-0.176
168.9000	-0.176
169.0000	-0.175
169.1000	-0.175
169.2000	-0.176
169.3000	-0.176
169.4000	-0.176
169.5000	-0.174
169.6000	-0.174
169.7000	-0.174
169.8000	-0.174
169.9000	-0.173
170.0000	-0.174
170.1000	-0.173
170.2000	-0.175
170.3000	-0.175
170.4000	-0.173
170.5000	-0.174
170.6000	-0.172
170.7000	-0.172
170.8000	-0.172
170.9000	-0.171
171.0000	-0.172
171.1000	-0.172
171.2000	-0.172
171.3000	-0.171
171.4000	-0.171
171.5000	-0.170
171.6000	-0.170
171.7000	-0.171
171.8000	-0.171
171.9000	-0.170
172.0000	-0.170
172.1000	-0.170
172.2000	-0.170
172.3000	-0.170
172.4000	-0.171
172.5000	-0.170
172.6000	-0.172
172.7000	-0.171
172.8000	-0.170
172.9000	-0.170
173.0000	-0.170
173.1000	-0.170
173.2000	-0.170
173.3000	-0.170
173.4000	-0.171
173.5000	-0.171
173.6000	-0.170
173.7000	-0.169
173.8000	-0.170
173.9000	-0.168
174.0000	-0.169
174.1000	-0.168
174.2000	-0.167
174.3000	-0.168
174.4000	-0.168
174.5000	-0.168
174.6000	-0.168
174.7000	-0.168
174.8000	-0.168
174.9000	-0.167
175.0000	-0.168
175.1000	-0.168
175.2000	-0.168
175.3000	-0.168
175.4000	-0.167
175.5000	-0.167
175.6000	-0.167
175.7000	-0.168
175.8000	-0.166
175.9000	-0.166
176.0000	-0.165
176.1000	-0.166
176.2000	-0.165
176.3000	-0.165
176.4000	-0.165
176.5000	-0.165
176.6000	-0.166
176.7000	-0.164
176.8000	-0.164
176.9000	-0.164
177.0000	-0.163
177.1000	-0.164
177.2000	-0.164
177.3000	-0.164
177.4000	-0.162
177.5000	-0.163
177.6000	-0.162
177.7000	-0.161
177.8000	-0.162
177.9000	-0.162
178.0000	-0.161
178.1000	-0.162
178.2000	-0.160
178.3000	-0.162
178.4000	-0.162
178.5000	-0.161
178.6000	-0.161
178.7000	-0.161
178.8000	-0.161
178.9000	-0.161
179.0000	-0.162
179.1000	-0.162
179.2000	-0.161
179.3000	-0.161
179.4000	-0.160
179.5000	-0.161
179.6000	-0.160
179.7000	-0.159
179.8000	-0.160
179.9000	-0.160
180.0000	-0.161
180.1000	-0.160
180.2000	-0.159
180.3000	-0.159
180.4000	-0.159
180.5000	-0.159
180.6000	-0.159
180.7000	-0.159
180.8000	-0.159
180.9000	-0.159
181.0000	-0.158
181.1000	-0.158
181.2000	-0.157
181.3000	-0.157
181.4000	-0.159
181.5000	-0.157
181.6000	-0.159
181.7000	-0.158
181.8000	-0.157
181.9000	-0.157
182.0000	-0.156
182.1000	-0.155
182.2000	-0.154
182.3000	-0.155
182.4000	-0.154
182.5000	-0.153
182.6000	-0.154
182.7000	-0.153
182.8000	-0.154
182.9000	-0.154
183.0000	-0.153
183.1000	-0.154
183.2000	-0.154
183.3000	-0.154
183.4000	-0.154
183.5000	-0.154
183.6000	-0.155
183.7000	-0.155
183.8000	-0.154
183.9000	-0.155
184.0000	-0.154
184.1000	-0.154
184.2000	-0.154
184.3000	-0.154
184.4000	-0.153
184.5000	-0.153
184.6000	-0.153
184.7000	-0.152
184.8000	-0.152
184.9000	-0.150
185.0000	-0.149
185.1000	-0.150
185.2000	-0.149
185.3000	-0.149
185.4000	-0.149
185.5000	-0.148
185.6000	-0.149
185.7000	-0.148
185.8000	-0.149
185.9000	-0.149
186.0000	-0.149
186.1000	-0.150
186.2000	-0.149
186.3000	-0.150
186.4000	-0.150
186.5000	-0.150
186.6000	-0.148
186.7000	-0.148
186.8000	-0.150
186.9000	-0.150
187.0000	-0.150
187.1000	-0.150
187.2000	-0.150
187.3000	-0.150
187.4000	-0.149
187.5000	-0.150
187.6000	-0.149
187.7000	-0.150
187.8000	-0.150
187.9000	-0.149
188.0000	-0.148
188.1000	-0.148
188.2000	-0.147
188.3000	-0.146
188.4000	-0.146
188.5000	-0.145
188.6000	-0.145
188.7000	-0.144
188.8000	-0.145
188.9000	-0.144
189.0000	-0.144
189.1000	-0.145
189.2000	-0.143
189.3000	-0.144
189.4000	-0.145
189.5000	-0.145
189.6000	-0.145
189.7000	-0.145
189.8000	-0.144
189.9000	-0.144